File: scripts/CV_XRD/data/ascii/I20180835_221_CV_XRD.dat
# I20180835 #221 CV with XRD
# Potential / V, Current Density / mA/cm^2, Strain ip / %, Strain oop / %, d ip / nm, d oop / nm, Intensity (area ip)
0.564844 -0.0290625 -0.0741943 0.417381 19.3933 14.7798 0.0118643
0.583047 -0.0277344 -0.0868184 0.419638 19.3222 14.741 0.0117072
0.598594 -0.0286719 -0.083516 0.411196 19.3192 14.7549 0.0117609
0.632812 -0.0300781 -0.0842984 0.407243 19.3041 14.7307 0.0117218
0.653984 -0.0341406 -0.0858137 0.401912 19.2676 14.671 0.0116467
0.681719 -0.0309375 -0.0889538 0.388641 19.2374 14.5869 0.0114614
0.705937 -0.0335937 -0.0888186 0.3832 19.2067 14.5999 0.0114002
0.733906 -0.0346094 -0.0904587 0.378627 19.2056 14.5838 0.011335
0.761875 -0.0360156 -0.0914781 0.371866 19.1141 14.5321 0.0112511
0.778203 -0.0385156 -0.0941317 0.364675 19.2769 14.521 0.0111964
0.806328 -0.0532031 -0.0941739 0.357757 19.0479 14.4554 0.0112902
0.825703 -0.0797656 -0.0947584 0.353687 19.1143 14.5168 0.0111532
0.859375 -0.116562 -0.101432 0.348859 19.1432 14.4564 0.0110623
0.879766 -0.170547 -0.100417 0.351456 19.1916 14.3977 0.0110038
0.905391 -0.236328 -0.102797 0.34863 19.0171 14.4046 0.0109448
0.931875 -0.304766 -0.108123 0.346069 19.0406 14.4226 0.0107703
0.951641 -0.375469 -0.102825 0.340463 19.096 14.3243 0.0110531
0.944375 -0.28375 -0.103667 0.34166 19.1347 14.4513 0.0109851
0.918359 -0.198828 -0.105718 0.341547 19.0315 14.4548 0.0112104
0.88625 -0.137266 -0.104525 0.344302 19.0792 14.369 0.0109141
0.861094 -0.0941406 -0.103667 0.345189 19.0713 14.3834 0.010987
0.849609 -0.0659375 -0.107671 0.340554 19.2221 14.4708 0.0109427
0.812188 -0.0485156 -0.107329 0.339411 19.0245 14.416 0.0109532
0.790625 -0.0375 -0.110687 0.340677 19.1347 14.3797 0.0112289
0.752891 -0.0307812 -0.10832 0.348903 19.0969 14.4463 0.0114928
0.739219 -0.028125 -0.10639 0.344998 19.1474 14.4917 0.0111113
0.714844 -0.0310156 -0.106918 0.351059 19.2265 14.5417 0.0111353
0.693516 -0.0278125 -0.108653 0.353194 19.221 14.4988 0.0112967
0.669297 -0.0278125 -0.104827 0.358896 19.2038 14.5072 0.0114093
0.642734 -0.0285156 -0.105552 0.359989 19.2288 14.6249 0.0113853
0.61375 -0.0260937 -0.100252 0.363685 19.2789 14.7264 0.0115803
0.589688 -0.0241406 -0.103924 0.376256 19.3739 14.6807 0.011585
0.569219 -0.0264062 -0.104555 0.382046 19.2959 14.6518 0.0116347
0.55 -0.0242188 -0.104166 0.381629 19.3405 14.7145 0.0117086
0.518359 -0.0233594 -0.103956 0.39245 19.3787 14.6219 0.0115501
0.488828 -0.0258594 -0.101936 0.397215 19.3104 14.7017 0.0114755
0.472266 -0.0274219 -0.0994172 0.403431 19.4211 14.6913 0.0116971
0.442422 -0.0235156 -0.101226 0.410767 19.4013 14.7323 0.011684
0.422656 -0.0264844 -0.0968803 0.418519 19.3457 14.734 0.0116811
0.386719 -0.0265625 -0.0996631 0.421465 19.3382 14.7461 0.011747
0.365312 -0.0250781 -0.0980325 0.43368 19.3283 14.8824 0.0119059
0.347734 -0.0242188 -0.0943503 0.442995 19.3591 14.8601 0.0116543
0.310703 -0.0229687 -0.0917302 0.450227 19.3222 14.8846 0.0116438
0.289922 -0.0234375 -0.0902204 0.453147 19.3139 14.9245 0.0119079
0.264219 -0.0221094 -0.0901038 0.467489 19.2453 14.927 0.0117097
0.234219 -0.0210938 -0.0871833 0.474358 19.3052 15.0241 0.0117236
0.222891 -0.02375 -0.0894673 0.485915 19.3368 15.0117 0.0115312
0.254219 -0.0242188 -0.086667 0.485172 19.2901 14.9652 0.0117137
0.274688 -0.0250781 -0.0861212 0.486445 19.322 14.9682 0.0114974
0.303203 -0.0259375 -0.0872299 0.47928 19.2524 14.9312 0.0113395
0.331094 -0.0247656 -0.08469 0.476891 19.2155 14.9577 0.0116066
0.352578 -0.0273438 -0.082623 0.471317 19.4215 14.9036 0.0116739
0.370781 -0.0271094 -0.082095 0.471708 19.4255 14.9415 0.0119993
0.403125 -0.0286719 -0.0852726 0.466341 19.3303 14.9008 0.0118231
0.428828 -0.0285156 -0.0831356 0.464425 19.4095 14.8708 0.01176
0.449219 -0.0292188 -0.0836592 0.454495 19.4165 14.8987 0.0118394
0.474844 -0.0292188 -0.0842691 0.451816 19.3636 15.0154 0.0119345
0.499844 -0.0289063 -0.0853903 0.44373 19.4604 14.8058 0.0116632
0.529922 -0.0275781 -0.0869753 0.436416 19.3883 14.9276 0.0115939
0.543281 -0.0314844 -0.0853908 0.433056 19.3216 14.8412 0.01183
0.571953 -0.0291406 -0.0871976 0.427411 19.4103 14.7347 0.0118615
0.594141 -0.0333594 -0.087275 0.42076 19.3261 14.754 0.0116038
0.622578 -0.0332031 -0.0881788 0.410305 19.405 14.7141 0.0117336
0.654453 -0.0320312 -0.0895173 0.403341 19.3183 14.6545 0.011619
0.677969 -0.0335156 -0.0900705 0.397413 19.4127 14.5831 0.0116103
0.695 -0.0317188 -0.0933547 0.391408 19.2653 14.5539 0.0115931
0.726016 -0.0351562 -0.0944819 0.379204 19.1985 14.5932 0.0116309
0.745859 -0.0363281 -0.0962811 0.368209 19.2537 14.5971 0.0114929
0.777578 -0.0404687 -0.099245 0.360474 19.1216 14.4339 0.0113401
0.798672 -0.051875 -0.0989037 0.358294 19.2491 14.532 0.0114515
0.824531 -0.0726563 -0.0993448 0.351807 19.0752 14.3562 0.0112085
0.852031 -0.109688 -0.101996 0.351619 19.1731 14.4771 0.0112594
0.875547 -0.16 -0.0992998 0.348073 19.0874 14.4967 0.0111769
0.896563 -0.220703 -0.100663 0.343065 19.0877 14.4523 0.0112756
0.932344 -0.291484 -0.105521 0.347654 19.0141 14.4607 0.0110509
0.945312 -0.359766 -0.10863 0.342887 19.0876 14.4826 0.0112982
0.938125 -0.319141 -0.108799 0.334437 19.1532 14.4274 0.0111048
0.925 -0.222891 -0.109499 0.340389 19.0574 14.3324 0.0111146
0.899453 -0.155312 -0.178711 0.2803 18.2051 14.1791 0.00597395
0.874844 -0.104688 -0.0631552 0.351776 18.6976 12.6808 0.001171
0.850156 -0.0717969 0.0875508 0.20892 23.2211 13.8339 0.000263982
0.821719 -0.0514844 -0.0704571 0.323633 19.0103 14.1961 0.00246666
0.804688 -0.0392969 -0.0849336 0.327556 19.0812 14.4661 0.00821961
0.773828 -0.0355469 -0.0933946 0.344775 19.0313 14.415 0.0106399
0.748672 -0.0332031 -0.100177 0.344577 19.1479 14.503 0.0110848
0.721719 -0.0292188 -0.109047 0.357236 19.1678 14.4288 0.0112086
0.701172 -0.0301562 -0.106022 0.357616 19.0678 14.5261 0.0111354
0.675078 -0.0299219 -0.104593 0.355253 19.1883 14.4858 0.0114184
0.653516 -0.0285938 -0.103534 0.364216 19.1825 14.5606 0.0113697
0.630078 -0.0284375 -0.102756 0.36699 19.1713 14.6226 0.0115443
0.602891 -0.028125 -0.102538 0.37388 19.2377 14.7336 0.0114409
0.572266 -0.02875 -0.100147 0.38015 19.3095 14.6645 0.0115438
0.553125 -0.0252344 -0.0985749 0.384241 19.2936 14.652 0.0116207
0.533125 -0.0278125 -0.0976639 0.386112 19.2833 14.6922 0.0112757
0.514609 -0.0264844 -0.0969704 0.399044 19.3288 14.716 0.0115978
0.479219 -0.0274219 -0.0925634 0.406186 19.243 14.7898 0.0115083
0.4525 -0.0254688 -0.0892415 0.406696 19.3014 14.7892 0.0114013
0.433594 -0.0263281 -0.0799983 0.415474 19.3068 14.7256 0.0108668
0.411172 -0.0255469 -0.0714066 0.415935 19.3275 14.7583 0.00956318
0.378984 -0.0242188 -0.0667076 0.42364 19.1752 14.7532 0.00859396
0.350156 -0.0258594 -0.0680469 0.435264 19.2841 14.7292 0.00894758
0.326094 -0.0225 -0.0743322 0.441694 19.3475 14.9417 0.0103076
0.295938 -0.0236719 -0.0831494 0.458102 19.3735 14.9995 0.0114222
0.290234 -0.0223437 -0.0951413 0.465001 19.3028 14.9166 0.011719
0.254609 -0.0198438 -0.0971493 0.464287 19.353 14.8199 0.0120692
0.236016 -0.0234375 -0.098539 0.469755 19.2897 14.9462 0.0121319
0.233828 -0.0213281 -0.0967022 0.478324 19.2961 14.9403 0.0118536
0.250703 -0.0249219 -0.0953377 0.475662 19.4041 15.0029 0.0123093
0.285 -0.0241406 -0.0879559 0.471616 19.4551 15.058 0.0120175
0.309688 -0.0261719 -0.0857023 0.47979 19.457 15.0579 0.0119164
0.334219 -0.0269531 -0.0884309 0.479116 19.2186 14.9745 0.0116546
0.359844 -0.0286719 -0.083041 0.476359 19.2881 14.9856 0.0118549
0.388437 -0.0284375 -0.0850442 0.471722 19.4054 15.007 0.0120595
0.403984 -0.0280469 -0.079917 0.46425 19.4484 14.9278 0.0117496
0.431797 -0.0273438 -0.0835997 0.45814 19.3923 14.878 0.0120435
0.459062 -0.0298438 -0.0817915 0.459073 19.3379 14.8703 0.0118553
0.483516 -0.0303906 -0.0848559 0.450893 19.3657 14.8807 0.0118727
0.511641 -0.0315625 -0.0863394 0.441728 19.3715 14.8127 0.0119032
0.534219 -0.0296875 -0.0877504 0.439364 19.4494 14.8579 0.0119719
0.563672 -0.031875 -0.0880091 0.433706 19.3723 14.8651 0.0119082
0.566953 -0.0292188 -0.0886081 0.429824 19.3436 14.7974 0.0117229
0.565547 -0.0272656 -0.0889807 0.420662 19.4363 14.8186 0.0118749
0.568359 -0.0291406 -0.089923 0.424229 19.2585 14.7698 0.0119092
0.563438 -0.029375 -0.0893843 0.418626 19.2867 14.8349 0.0117197