File: scripts/CV_XRD/data/ascii/I20180835_236_CV_XRD.dat
# I20180835 #236 CV with XRD
# Potential / V, Current Density / mA/cm^2, Strain ip / %, Strain oop / %, d ip / nm, d oop / nm, Intensity (area ip)
0.358828 -0.0295313 -0.132438 0.394797 19.5234 14.6585 0.0105961
0.376953 -0.0294531 -0.13597 0.393425 19.4324 14.7076 0.0107846
0.42 -0.0335937 -0.137733 0.383947 19.5794 14.6672 0.0106446
0.444141 -0.0369531 -0.140185 0.380434 19.4532 14.6541 0.0108378
0.473516 -0.0389844 -0.142296 0.36865 19.3714 14.6475 0.0104644
0.516875 -0.0382813 -0.150318 0.359789 19.3826 14.5977 0.0105731
0.551406 -0.0407812 -0.15406 0.346432 19.25 14.5106 0.0102717
0.578047 -0.0454688 -0.155157 0.339644 19.2603 14.4812 0.00991773
0.611172 -0.0801562 -0.162493 0.332186 19.2482 14.4246 0.0100996
0.649844 -0.214141 -0.164898 0.331434 19.1416 14.4273 0.00983866
0.651094 -0.238047 -0.172899 0.328183 19.0785 14.3741 0.00985558
0.618906 -0.0921875 -0.171384 0.329909 19.1214 14.4379 0.01009
0.585234 -0.0478125 -0.169437 0.329075 19.1604 14.458 0.0100133
0.546563 -0.0339844 -0.171773 0.330878 19.2515 14.4113 0.00994774
0.506875 -0.0300781 -0.169518 0.333391 19.2302 14.416 0.0101892
0.479219 -0.0322656 -0.168016 0.342813 19.2035 14.498 0.0101932
0.448047 -0.0303906 -0.164724 0.344883 19.2689 14.5694 0.0101587
0.420703 -0.0296094 -0.163483 0.348555 19.3187 14.5193 0.0104769
0.384844 -0.0296094 -0.163691 0.358705 19.3952 14.586 0.0105953
0.346172 -0.0302344 -0.158439 0.372648 19.4402 14.7018 0.0104724
0.312969 -0.0283594 -0.158197 0.384561 19.3561 14.6128 0.0105753
0.293125 -0.0275 -0.1552 0.383786 19.3443 14.6865 0.0106081
0.252188 -0.0275781 -0.15353 0.390731 19.374 14.6578 0.0106378
0.222109 -0.025 -0.153612 0.40009 19.3685 14.7731 0.0106799
0.187656 -0.0241406 -0.151722 0.415336 19.3586 14.6691 0.0107653
0.149453 -0.0221094 -0.14859 0.416282 19.5194 14.8316 0.0107159
0.119609 -0.0242969 -0.143747 0.428332 19.3906 14.7659 0.0105841
0.0879687 -0.023125 -0.14137 0.448483 19.3489 14.8176 0.0106421
0.0625 -0.0230469 -0.139072 0.462425 19.4474 14.7804 0.0109937
0.0145313 -0.0221875 -0.137131 0.465584 19.458 14.8814 0.0107296
-0.0141406 -0.0217188 -0.132493 0.48713 19.4242 14.9686 0.0108679
-0.011875 -0.025 -0.130925 0.488047 19.3685 15.0129 0.0105543
0.0205469 -0.0251563 -0.130675 0.489906 19.3899 15.0045 0.0105107
0.0678125 -0.0267187 -0.131706 0.487422 19.4012 14.9409 0.010838
0.0898438 -0.0261719 -0.127959 0.47247 19.4971 14.9095 0.0109114
0.124766 -0.0298438 -0.126976 0.465579 19.5124 14.8302 0.0107345
0.167266 -0.0291406 -0.130317 0.463593 19.4231 14.853 0.0108273
0.189531 -0.0299219 -0.126701 0.456418 19.4826 14.8535 0.0108749
0.217656 -0.0307031 -0.131685 0.444152 19.3939 14.8118 0.0108257
0.256094 -0.0323437 -0.13237 0.431377 19.4031 14.756 0.0104916
0.294531 -0.0328125 -0.134982 0.426571 19.44 14.7872 0.0107538
0.322734 -0.0341406 -0.135983 0.423673 19.4946 14.7802 0.0110234
0.368047 -0.0357813 -0.132546 0.410925 19.3648 14.7212 0.0109067
0.394141 -0.0353906 -0.137078 0.395469 19.4465 14.6195 0.0105848
0.426875 -0.0385156 -0.141598 0.396594 19.4212 14.725 0.0107049
0.456797 -0.0403906 -0.141052 0.387337 19.3946 14.6963 0.0107709
0.496641 -0.0402344 -0.147367 0.370343 19.2952 14.5356 0.0105071
0.523984 -0.0384375 -0.152488 0.352352 19.3815 14.5778 0.0105831
0.557266 -0.0410156 -0.15529 0.34761 19.2225 14.4046 0.0102181
0.593359 -0.0516406 -0.159732 0.333237 19.1005 14.4704 0.00990167
0.628594 -0.106484 -0.160764 0.329313 19.2799 14.4207 0.00997727
0.671484 -0.285781 -0.166041 0.330187 19.2357 14.4211 0.0100638
0.637344 -0.168828 -0.170543 0.332884 19.1949 14.3941 0.0100646
0.600859 -0.0664062 -0.171281 0.335532 19.1778 14.4351 0.0100059
0.568203 -0.0407031 -0.169966 0.335285 19.048 14.4205 0.00988118
0.529687 -0.031875 -0.167569 0.341175 19.1827 14.4373 0.00986429
0.498984 -0.0302344 -0.166073 0.335806 19.165 14.4446 0.0100074
0.469453 -0.0275781 -0.245503 0.279511 18.3041 14.1833 0.00526634
0.433125 -0.0257031 -0.117944 0.366141 18.6266 13.3844 0.000684585
0.406562 -0.0264844 -0.0272364 0.434201 17.0213 14.0888 0.000612408
0.370625 -0.0271875 -0.130692 0.367052 19.273 14.4108 0.0051526
0.333359 -0.0286719 -0.140231 0.383722 19.42 14.6488 0.00999601
0.303125 -0.0285938 -0.149182 0.379847 19.4096 14.5917 0.0104333
0.263906 -0.0261719 -0.147937 0.395708 19.4503 14.7321 0.0107057
0.236484 -0.0266406 -0.145226 0.401888 19.3868 14.7241 0.0104036
0.203125 -0.025625 -0.142077 0.41824 19.4308 14.7203 0.0106557
0.172891 -0.0246875 -0.139266 0.425443 19.4269 14.7767 0.0105918
0.138984 -0.024375 -0.137846 0.432644 19.4858 14.8392 0.0105298
0.108125 -0.0233594 -0.134844 0.444805 19.4846 14.7988 0.0106752
0.0749219 -0.023125 -0.131301 0.458628 19.3527 14.8206 0.0107133
0.0454688 -0.0191406 -0.123845 0.470864 19.4098 14.9147 0.01051
-0.0015625 -0.0190625 -0.119704 0.491084 19.3584 15.0018 0.00987876
-0.0280469 -0.0211719 -0.0990079 0.49732 19.3626 15.0006 0.00868606
0.0114844 -0.0219531 -0.0984032 0.497017 19.3631 15.0203 0.00731594
0.0442969 -0.0255469 -0.0936948 0.493254 19.3215 15.0641 0.00835829
0.0799219 -0.0240625 -0.106341 0.482761 19.5116 14.977 0.00995541
0.112891 -0.0270312 -0.129329 0.480373 19.4117 14.8649 0.0107419
0.136563 -0.0298438 -0.13698 0.45897 19.5593 14.9126 0.0110908
0.173203 -0.0289063 -0.137858 0.452172 19.4261 14.8059 0.0110471
0.205781 -0.0296094 -0.141005 0.447241 19.4288 14.8152 0.0110592
0.241484 -0.0303906 -0.136731 0.440554 19.3476 14.8757 0.0110249
0.279531 -0.0322656 -0.134071 0.438623 19.4152 14.8063 0.010929
0.304688 -0.0314844 -0.13222 0.434366 19.3708 14.7925 0.0108853
0.336016 -0.0339844 -0.131644 0.423665 19.3959 14.7919 0.0107286
0.378984 -0.0332031 -0.129214 0.413318 19.3992 14.7568 0.01071
0.409453 -0.0349219 -0.131605 0.398039 19.5052 14.7951 0.0107241
0.445234 -0.0375781 -0.135182 0.391658 19.4372 14.6216 0.010572
0.479141 -0.0396875 -0.141858 0.383957 19.3981 14.5701 0.0107048
0.508672 -0.0413281 -0.149206 0.364659 19.3151 14.633 0.0107211
0.538594 -0.0405469 -0.153606 0.352035 19.207 14.5711 0.0105668
0.572734 -0.0422656 -0.155172 0.346536 19.2521 14.4732 0.0102856
0.614766 -0.0642969 -0.161664 0.338895 19.148 14.3731 0.0101546
0.645078 -0.151172 -0.16437 0.332517 19.182 14.3425 0.0103508
0.658984 -0.280938 -0.16508 0.334585 19.2708 14.4063 0.0102297
0.632344 -0.116406 -0.168833 0.338584 19.1422 14.3176 0.0103467
0.591719 -0.0525781 -0.169484 0.334952 19.2244 14.4428 0.0101517
0.559688 -0.0360156 -0.167596 0.334266 19.2449 14.3195 0.0102774
0.5275 -0.0319531 -0.168602 0.340628 19.2108 14.4078 0.0102194
0.491016 -0.0320312 -0.166846 0.344116 19.3503 14.5249 0.0103579
0.458672 -0.028125 -0.163861 0.345185 19.3158 14.4845 0.0103385
0.418281 -0.0307031 -0.165197 0.353639 19.2564 14.5439 0.0106859
0.397031 -0.0304687 -0.161654 0.372033 19.4239 14.637 0.0106408
0.360078 -0.0283594 -0.159668 0.373036 19.3273 14.6743 0.0109629
0.327734 -0.0296875 -0.154814 0.382233 19.4435 14.6404 0.0108404
0.293359 -0.0290625 -0.153189 0.398536 19.4129 14.661 0.0108056
0.253125 -0.0285156 -0.149741 0.397732 19.4197 14.6869 0.0107318
0.225625 -0.0264062 -0.153676 0.411672 19.4715 14.7424 0.0109654
0.193594 -0.0261719 -0.151915 0.421576 19.3602 14.8327 0.0108412
0.157109 -0.0254688 -0.15058 0.425497 19.3711 14.7894 0.0108854
0.125781 -0.02375 -0.146216 0.437347 19.4234 14.7458 0.0110623
0.0927344 -0.0253125 -0.141151 0.443541 19.4071 14.8277 0.0108989
0.0619531 -0.0242969 -0.140636 0.459576 19.5325 14.8052 0.0110686
0.0253125 -0.0240625 -0.137986 0.470957 19.4534 14.8342 0.0112847
-0.0046875 -0.0232031 -0.134483 0.486651 19.41 14.9056 0.0110134
-0.0179688 -0.0240625 -0.131945 0.494004 19.4309 15.0004 0.0110004
0.0125781 -0.0260937 -0.132972 0.493759 19.3355 14.8609 0.0110976
0.0519531 -0.0274219 -0.128405 0.484388 19.4755 14.994 0.0108381
0.0825781 -0.0261719 -0.131838 0.482129 19.3946 14.8543 0.0106299
0.117734 -0.0285938 -0.130821 0.479879 19.4151 14.9049 0.0111497
0.152891 -0.0271875 -0.130397 0.473156 19.4419 14.9271 0.0109217
0.183594 -0.0307812 -0.130869 0.454016 19.4759 14.8815 0.0111258
0.215234 -0.029375 -0.131933 0.448191 19.407 14.8622 0.0110352
0.250312 -0.030625 -0.134481 0.442252 19.4606 14.7525 0.0111348
0.287656 -0.0316406 -0.13654 0.433277 19.5227 14.8378 0.0106761
0.318359 -0.0332031 -0.136119 0.422957 19.3164 14.8411 0.010877
0.352734 -0.0347656 -0.137727 0.411313 19.5324 14.7743 0.0108439
0.372031 -0.0315625 -0.140021 0.406576 19.3888 14.6746 0.0110351
0.367031 -0.0329687 -0.139425 0.395817 19.3812 14.6131 0.0110635
0.360859 -0.03375 -0.137448 0.401017 19.4897 14.7054 0.0109452
0.371641 -0.034375 -0.143814 0.395201 19.4576 14.7112 0.0108203
0.369922 -0.0311719 -0.139985 0.401248 19.498 14.6993 0.0109769
0.375391 -0.0328125 -0.14087 0.400209 19.3164 14.7687 0.0109532
0.371328 -0.0325 -0.142403 0.39696 19.3885 14.7237 0.0107965
0.36375 -0.0328125 -0.142105 0.394326 19.4226 14.7583 0.0108806
0.365469 -0.031875 -0.143001 0.398284 19.4846 14.7046 0.0109715
0.360391 -0.0330469 -0.145402 0.399622 19.4187 14.7087 0.0110325
0.365391 -0.0314844 -0.146409 0.394204 19.5175 14.6807 0.0109697
0.369688 -0.031875 -0.14428 0.392051 19.3902 14.6506 0.0108957
0.366719 -0.031875 -0.145155 0.395353 19.5199 14.7018 0.0106243
0.368906 -0.0326562 -0.142656 0.390392 19.3915 14.6794 0.0107311
0.369375 -0.0311719 -0.141174 0.392604 19.5032 14.7679 0.0108736
0.367109 -0.03375 -0.144429 0.398181 19.3806 14.6527 0.0108423
0.367344 -0.0335156 -0.141773 0.393048 19.3923 14.6659 0.0109742
0.369297 -0.0315625 -0.143049 0.390801 19.4304 14.7611 0.0109391
0.373906 -0.0325781 -0.14333 0.388501 19.4811 14.6727 0.0109049
0.375703 -0.0321094 -0.144426 0.395887 19.4627 14.75 0.0109219
0.365859 -0.0327344 -0.144271 0.391889 19.5322 14.6698 0.0108183
0.369609 -0.0325781 -0.144235 0.386728 19.3818 14.6182 0.0111276
0.374219 -0.0330469 -0.143477 0.390737 19.4509 14.7152 0.0109632
0.367031 -0.0314844 -0.143628 0.396868 19.4201 14.6798 0.010953
0.359453 -0.030625 -0.145213 0.396114 19.4346 14.6589 0.0106724