File: scripts/CV_XRD/data/ascii/I20180835_243_CV_XRD.dat
# I20180835 #243 CV with XRD
# Potential / V, Current Density / mA/cm^2, Strain ip / %, Strain oop / %, d ip / nm, d oop / nm, Intensity (area ip)
0.739141 -0.0271094 -0.12965 0.333765 19.2559 14.4499 0.00831828
0.775703 -0.0296094 -0.130926 0.328513 19.2538 14.4474 0.00847021
0.803125 -0.0310156 -0.129906 0.31547 19.24 14.4516 0.00837107
0.836016 -0.0347656 -0.132611 0.30974 19.2195 14.5352 0.00835967
0.867656 -0.0358594 -0.132931 0.303171 19.2276 14.4715 0.00845839
0.904766 -0.0380469 -0.131202 0.290187 19.1034 14.4829 0.00827629
0.944531 -0.0390625 -0.1349 0.277072 19.1429 14.3323 0.00802648
0.972969 -0.0400781 -0.139655 0.270589 19.0786 14.2221 0.00783938
1.00484 -0.0503125 -0.143371 0.257305 19.0159 14.2681 0.00807002
1.03641 -0.065625 -0.150197 0.251042 19.1025 14.234 0.00786068
1.06727 -0.105547 -0.151711 0.243355 18.9246 14.2645 0.00769615
1.10828 -0.178672 -0.159228 0.246775 19.0282 14.2714 0.00786235
1.13164 -0.267031 -0.160909 0.241056 19.0411 14.2727 0.00773997
1.16727 -0.367031 -0.166061 0.238168 19.0418 14.2418 0.00770476
1.19844 -0.442188 -0.164235 0.232091 19.0461 14.1632 0.00775792
1.2068 -0.349297 -0.168007 0.236146 19.1379 14.2503 0.00779968
1.17398 -0.225469 -0.166385 0.233416 19.2063 14.3401 0.00804665
1.14531 -0.147422 -0.165817 0.234235 19.0737 14.3099 0.00784688
1.10594 -0.0921094 -0.167134 0.238875 19.1584 14.3029 0.00818745
1.07453 -0.0639062 -0.167111 0.234363 19.1893 14.1974 0.00797339
1.03812 -0.0450781 -0.165224 0.239198 19.1608 14.2739 0.00789993
1.00641 -0.0357813 -0.169475 0.239459 19.2055 14.2325 0.00808964
0.9675 -0.0324219 -0.169103 0.241215 19.1115 14.275 0.00806305
0.939375 -0.0311719 -0.163219 0.248316 19.0734 14.3434 0.00793714
0.897422 -0.0296094 -0.164669 0.257207 19.0615 14.2701 0.00824431
0.871563 -0.0285156 -0.163998 0.260381 18.9831 14.365 0.00814373
0.835938 -0.0278125 -0.162612 0.280896 19.1818 14.2387 0.00835318
0.806875 -0.0277344 -0.162808 0.285167 19.0917 14.3127 0.00851665
0.77125 -0.0267187 -0.15929 0.300104 19.1295 14.3182 0.00834836
0.739375 -0.02875 -0.159436 0.302092 19.2073 14.4479 0.00834151
0.707813 -0.0274219 -0.155818 0.309296 19.0409 14.396 0.0084687
0.677266 -0.0282031 -0.153558 0.326708 19.1761 14.5567 0.00846139
0.644297 -0.0242969 -0.147002 0.330937 19.2948 14.5364 0.00857613
0.612969 -0.0254688 -0.145365 0.346859 19.1873 14.5003 0.00850671
0.579766 -0.0246875 -0.143396 0.35971 19.1753 14.5253 0.0085936
0.544297 -0.0253125 -0.139315 0.375819 19.2555 14.5949 0.00856865
0.509297 -0.0245313 -0.134677 0.394497 19.294 14.5881 0.00865638
0.473594 -0.0228125 -0.127188 0.408604 19.3077 14.7454 0.00900936
0.442031 -0.0245313 -0.127028 0.423354 19.2708 14.782 0.00893085
0.416172 -0.0226562 -0.121497 0.439156 19.2871 14.7851 0.00891644
0.393906 -0.0264062 -0.114917 0.460932 19.3023 14.8796 0.00860396
0.424063 -0.0277344 -0.111795 0.452466 19.2507 14.7908 0.00876158
0.467891 -0.0278906 -0.110239 0.44228 19.3485 14.8495 0.00886941
0.488828 -0.0282031 -0.115723 0.441738 19.3209 14.7995 0.00885757
0.535781 -0.0279688 -0.114816 0.424313 19.2828 14.7411 0.00870586
0.562734 -0.030625 -0.116678 0.420523 19.3745 14.8083 0.00880755
0.587578 -0.0292969 -0.112249 0.402717 19.3337 14.6568 0.00882487
0.624609 -0.0317188 -0.116214 0.388551 19.3966 14.766 0.00884681
0.660156 -0.0329687 -0.117077 0.372161 19.2661 14.6594 0.00881083
0.691641 -0.0325781 -0.123746 0.373987 19.1754 14.5627 0.00890098
0.735391 -0.0330469 -0.12484 0.359667 19.1319 14.5674 0.00852467
0.759531 -0.0326562 -0.125484 0.343428 19.3169 14.5274 0.00868587
0.790781 -0.0332812 -0.128122 0.336711 19.1624 14.5272 0.00862414
0.818906 -0.0367969 -0.132578 0.32226 19.303 14.4654 0.00880264
0.860391 -0.0382031 -0.131738 0.302831 19.1371 14.5174 0.008553
0.893516 -0.0383594 -0.131839 0.293708 19.3142 14.5037 0.00825821
0.923828 -0.0383594 -0.134534 0.276416 19.1402 14.3169 0.0082328
0.952422 -0.04 -0.142127 0.265754 19.11 14.3062 0.00819254
0.992969 -0.0480469 -0.144306 0.260168 19.0361 14.3111 0.00814885
1.02258 -0.0613281 -0.151455 0.253294 18.9803 14.3144 0.00819212
1.0625 -0.0939062 -0.15663 0.246169 19.0527 14.2348 0.00819775
1.09141 -0.155078 -0.160751 0.242086 18.944 14.1491 0.00792203
1.12547 -0.240937 -0.161916 0.244428 19.0322 14.2291 0.00788504
1.16531 -0.342422 -0.167041 0.241942 19.1404 14.1216 0.0079568
1.19656 -0.425781 -0.166134 0.232698 19.1864 14.3024 0.00794425
1.20719 -0.393125 -0.168069 0.230063 19.0679 14.1945 0.00828609
1.17578 -0.247969 -0.169989 0.23029 19.2822 14.2152 0.00813915
1.14641 -0.163125 -0.168216 0.234817 19.0276 14.1859 0.00820915
1.11187 -0.105938 -0.172865 0.226554 19.0997 14.1951 0.00812098
1.08094 -0.0680469 -0.169593 0.229864 19.06 14.3062 0.00831559
1.05688 -0.0496094 -0.167185 0.231649 19.2087 14.257 0.00808466
1.01453 -0.0400781 -0.170347 0.23942 19.1648 14.2391 0.00809065
0.978906 -0.0358594 -0.170346 0.249866 19.0465 14.2025 0.00822398
0.944688 -0.0323437 -0.170292 0.244436 19.0276 14.2886 0.00794557
0.909062 -0.03125 -0.167576 0.257709 18.9344 14.3771 0.0080614
0.882969 -0.0288281 -0.169636 0.261277 19.0739 14.2697 0.00815018
0.856406 -0.0280469 -0.166438 0.268447 19.085 14.3139 0.00848364
0.82 -0.0289844 -0.163233 0.275649 19.0994 14.3617 0.00841965
0.786172 -0.0283594 -0.163709 0.292898 18.9874 14.3148 0.0082316
0.751484 -0.0278125 -0.162874 0.293494 19.1119 14.3682 0.00845682
0.712969 -0.0254688 -0.161932 0.308129 19.0404 14.4501 0.00828711
0.682734 -0.0248438 -0.1589 0.319694 19.2512 14.4951 0.0085525
0.657031 -0.0257031 -0.154167 0.331112 19.1694 14.4612 0.00851513
0.620078 -0.0260156 -0.15015 0.349011 19.2501 14.5071 0.00851282
0.58 -0.0258594 -0.147342 0.360526 19.1903 14.5522 0.00859188
0.547266 -0.0253125 -0.140338 0.371131 19.2139 14.5983 0.00870632
0.512031 -0.0235938 -0.140352 0.390847 19.4077 14.7049 0.00902117
0.483906 -0.0229687 -0.133044 0.403755 19.1753 14.5799 0.00883433
0.456875 -0.0234375 -0.207274 0.345574 18.7141 14.5217 0.00558674
0.425156 -0.0221875 -0.124239 0.426992 19.4873 14.8097 0.00306744
0.385703 -0.0245313 0.0468698 0.731804 17.2857 18.1353 0.000326484
0.425547 -0.0267969 -0.0882573 0.453838 18.7999 14.5106 0.00173952
0.466406 -0.0277344 -0.112135 0.444519 19.1741 14.7511 0.0060945
0.48625 -0.0290625 -0.113494 0.435227 19.2837 14.7661 0.00824616
0.523672 -0.0283594 -0.114824 0.432084 19.354 14.7571 0.00850211
0.559609 -0.0310156 -0.116048 0.417926 19.205 14.7482 0.00853
0.592344 -0.0305469 -0.117758 0.39982 19.2923 14.6788 0.00857414
0.625703 -0.0292969 -0.116557 0.392037 19.2547 14.6673 0.00852324
0.659375 -0.0317188 -0.119643 0.377887 19.3371 14.5832 0.00840847
0.686406 -0.0301562 -0.120411 0.361133 19.246 14.6843 0.00827447
0.727031 -0.0326562 -0.119902 0.358259 19.1243 14.5081 0.0082574
0.760391 -0.0327344 -0.122411 0.337995 19.249 14.5477 0.00823279
0.789219 -0.0333594 -0.126037 0.335967 19.2541 14.4837 0.00796292
0.817266 -0.0355469 -0.124383 0.318301 19.2422 14.4475 0.00656552
0.871719 -0.0360156 -0.13102 0.304756 19.1036 14.4013 0.00548009
0.889531 -0.0379688 -0.130513 0.284863 19.1396 14.5539 0.00522476
0.921953 -0.0386719 -0.135845 0.278199 19.1305 14.2138 0.00620741
0.951328 -0.0416406 -0.140741 0.2637 19.0275 14.3175 0.00782366
0.987734 -0.0434375 -0.156383 0.269523 19.0903 14.2312 0.00885869
1.02547 -0.0591406 -0.165903 0.265783 18.9959 14.3053 0.00909136
1.06305 -0.0874219 -0.168177 0.247257 19.0478 14.2818 0.00906297
1.09008 -0.148672 -0.171073 0.243307 19.0064 14.2385 0.00872516
1.12898 -0.233203 -0.165308 0.233899 19.1664 14.2078 0.00867956
1.15977 -0.335703 -0.170387 0.229158 18.9953 14.2106 0.00826232
1.19078 -0.420547 -0.168295 0.232783 19.1237 14.2094 0.00826329
1.22039 -0.407031 -0.169035 0.234689 19.0515 14.2605 0.00793496
1.18023 -0.2525 -0.170437 0.230092 19.1357 14.2377 0.00800709
1.14602 -0.165859 -0.174697 0.234421 19.0624 14.2247 0.00809924
1.11742 -0.106797 -0.174401 0.238169 19.1238 14.1939 0.00818966
1.08602 -0.0692969 -0.169925 0.23237 19.0666 14.2646 0.00816421
1.04133 -0.0485937 -0.172934 0.231473 18.9963 14.2093 0.00841799
1.01758 -0.0398438 -0.172569 0.240229 19.0843 14.1749 0.00833463
0.980781 -0.0355469 -0.170215 0.242123 19.0805 14.1945 0.0085602
0.950937 -0.0342187 -0.172695 0.241488 19.0932 14.2376 0.00847811
0.910781 -0.0297656 -0.17435 0.253995 18.9198 14.2 0.00858956
0.879062 -0.0298438 -0.172599 0.253672 19.1404 14.3276 0.00867428
0.846094 -0.0264844 -0.169458 0.264801 19.0163 14.3172 0.00852374
0.806016 -0.0300781 -0.170218 0.287426 19.1212 14.3001 0.00873168
0.780391 -0.026875 -0.165837 0.289455 19.1092 14.3282 0.00871639
0.737578 -0.0289063 -0.166172 0.297939 19.1639 14.348 0.00869853
0.712344 -0.0288281 -0.162994 0.317247 19.0359 14.3782 0.00870464
0.676563 -0.0266406 -0.159517 0.323723 19.1371 14.4858 0.00869231
0.647188 -0.0275 -0.155376 0.329834 19.1291 14.293 0.00870963
0.611719 -0.0260937 -0.153225 0.344605 19.161 14.3782 0.00882779
0.576484 -0.0239063 -0.153094 0.362835 19.2383 14.5674 0.00916761
0.546172 -0.0257031 -0.145982 0.373971 19.2977 14.5256 0.00928053
0.509844 -0.0240625 -0.141976 0.387839 19.3441 14.559 0.00930442
0.47875 -0.0232031 -0.135874 0.403503 19.2654 14.6767 0.00916095
0.479375 -0.0238281 -0.130552 0.410731 19.2101 14.5812 0.00933358