File: scripts/CV_XRD/data/ascii/I20180835_229_CV_XRD.dat
# I20180835 #229 CV with XRD
# Potential / V, Current Density / mA/cm^2, Strain ip / %, Strain oop / %, d ip / nm, d oop / nm, Intensity (area ip)
0.366484 -0.0299219 -0.0901979 0.430186 19.4434 14.7866 0.0121637
0.386563 -0.0350781 -0.0903962 0.430233 19.3901 14.8121 0.0119962
0.417891 -0.0355469 -0.0923852 0.419608 19.4213 14.7217 0.0122862
0.455156 -0.0373438 -0.0896268 0.415212 19.4784 14.8239 0.0121589
0.494766 -0.0396094 -0.0966512 0.405283 19.3553 14.7155 0.0122824
0.513281 -0.0399219 -0.0982068 0.3931 19.4346 14.7069 0.0121746
0.549687 -0.0438281 -0.100624 0.383948 19.239 14.6357 0.0116172
0.587422 -0.0548438 -0.101201 0.375549 19.1401 14.6399 0.0115934
0.623203 -0.122344 -0.101865 0.364325 19.2504 14.5505 0.0117921
0.657656 -0.298594 -0.108205 0.364399 19.253 14.6095 0.011839
0.643516 -0.219062 -0.107933 0.365246 19.3588 14.5608 0.011727
0.605547 -0.0954688 -0.108629 0.366595 19.1928 14.5268 0.0115605
0.578828 -0.043125 -0.110172 0.364258 19.1902 14.5067 0.0116465
0.541328 -0.0346875 -0.10709 0.369812 19.2905 14.5633 0.0118317
0.506406 -0.0328125 -0.106394 0.372489 19.3411 14.5718 0.0118684
0.474219 -0.03 -0.106982 0.369575 19.3084 14.6151 0.011836
0.447578 -0.0295313 -0.103577 0.385585 19.3113 14.6017 0.0118581
0.409219 -0.0302344 -0.104849 0.388207 19.3328 14.657 0.0121271
0.366797 -0.0289063 -0.102201 0.405167 19.3772 14.7205 0.0121931
0.343125 -0.0300781 -0.101142 0.405728 19.3809 14.7898 0.0119942
0.312734 -0.0307031 -0.0996723 0.417026 19.4094 14.8504 0.0121489
0.280938 -0.0297656 -0.0955955 0.413048 19.4121 14.7994 0.0121864
0.25 -0.0292969 -0.096609 0.427367 19.4134 14.8889 0.0120325
0.210859 -0.0260156 -0.0996212 0.431221 19.3772 14.8834 0.0120718
0.185 -0.0257813 -0.0971655 0.445552 19.3371 14.8971 0.0121525
0.138828 -0.0253125 -0.0966883 0.450888 19.4281 14.8989 0.0122664
0.108203 -0.0235938 -0.095862 0.463122 19.3919 14.8945 0.0121536
0.0790625 -0.0251563 -0.0951002 0.470693 19.4059 14.9326 0.0122942
0.0435938 -0.0235938 -0.0912171 0.473589 19.4152 14.9924 0.0121692
0.0121875 -0.0236719 -0.0905936 0.494254 19.3395 14.9745 0.0118886
-0.0175781 -0.0230469 -0.0899968 0.505515 19.2931 15.1368 0.0121423
0.00101563 -0.0239844 -0.0872948 0.509919 19.3338 15.1281 0.0119366
0.0421094 -0.0271094 -0.0835163 0.50618 19.352 15.0495 0.0120732
0.066875 -0.02625 -0.087071 0.504695 19.3962 15.1233 0.0120072
0.108906 -0.028125 -0.0885406 0.492838 19.446 15.1037 0.0119349
0.138125 -0.0308594 -0.0853316 0.488085 19.4686 15.0277 0.012132
0.178437 -0.0309375 -0.0877979 0.486106 19.3089 15.0606 0.0120699
0.210469 -0.0323437 -0.0857237 0.483799 19.371 15.0512 0.0119167
0.237891 -0.0330469 -0.0821758 0.471661 19.488 14.9871 0.0122562
0.269062 -0.0314063 -0.0846877 0.463704 19.4263 14.8939 0.0123642
0.310078 -0.0346875 -0.0864392 0.459058 19.469 14.9087 0.0121951
0.332422 -0.0357031 -0.0873214 0.451905 19.3445 14.8683 0.0120154
0.377109 -0.0379688 -0.0859975 0.444337 19.4397 14.9555 0.0120975
0.410078 -0.0365625 -0.0857957 0.437255 19.3152 14.8299 0.0121491
0.433281 -0.0392969 -0.0877707 0.422505 19.3288 14.8517 0.0121012
0.474687 -0.0395313 -0.0890735 0.419169 19.3967 14.7302 0.0121107
0.500859 -0.0409375 -0.0930687 0.401399 19.4026 14.7614 0.0119573
0.5425 -0.0414844 -0.0962279 0.389112 19.235 14.6987 0.0118847
0.569688 -0.0430469 -0.0980518 0.375818 19.281 14.5339 0.0118317
0.601875 -0.0716406 -0.0995104 0.371282 19.2879 14.5995 0.0117653
0.633984 -0.1775 -0.0985021 0.366513 19.1803 14.6216 0.0119137
0.667578 -0.328125 -0.100316 0.363728 19.1939 14.6169 0.0118771
0.6275 -0.153984 -0.103662 0.363642 19.3275 14.5535 0.0117831
0.593828 -0.0654688 -0.107809 0.363632 19.2459 14.5326 0.0116998
0.554688 -0.0401562 -0.106392 0.372363 19.3779 14.5944 0.0117986
0.526563 -0.0332031 -0.107032 0.363749 19.2284 14.6112 0.0118566
0.496563 -0.0321875 -0.106594 0.373916 19.2593 14.7165 0.0118316
0.465078 -0.03 -0.105364 0.380539 19.2486 14.6885 0.0119201
0.423516 -0.03125 -0.103823 0.385442 19.3796 14.7538 0.0120399
0.395156 -0.0322656 -0.100586 0.394983 19.3461 14.7415 0.0119826
0.367812 -0.0309375 -0.0994507 0.40308 19.4269 14.7747 0.0119643
0.334688 -0.0296875 -0.101451 0.406112 19.3395 14.723 0.0121993
0.291875 -0.0252344 -0.174709 0.342838 18.6512 14.6589 0.00589307
0.254297 -0.02375 -0.0347202 0.447785 18.313 13.4755 0.000866159
0.23 -0.0247656 -0.0178959 0.329106 18.686 16.1719 0.000715901
0.195859 -0.0255469 -0.0664922 0.441895 19.2208 14.8677 0.00597793
0.167344 -0.0263281 -0.0800354 0.452584 19.4759 14.9867 0.0112666
0.129453 -0.0252344 -0.0881537 0.45814 19.4578 14.9094 0.0120644
0.090625 -0.0255469 -0.0882475 0.475797 19.3639 14.9983 0.0121984
0.0592188 -0.0248438 -0.087096 0.480171 19.3458 15.0387 0.0119197
0.0339062 -0.0230469 -0.085455 0.493651 19.3276 15.0124 0.0118608
-0.0075 -0.0213281 -0.0819056 0.504994 19.3785 15.069 0.0119565
-0.0225781 -0.0236719 -0.0787112 0.514073 19.3712 15.143 0.0117401
0.021875 -0.0259375 -0.0743926 0.516166 19.3951 15.0534 0.0117363
0.05375 -0.0273438 -0.0760288 0.51403 19.391 15.1089 0.0118017
0.0817969 -0.0292969 -0.0720908 0.509395 19.3897 15.0822 0.011626
0.115078 -0.03 -0.0685429 0.50102 19.3326 15.1757 0.0111445
0.147031 -0.0308594 -0.0552708 0.492001 19.3055 15.0133 0.00978522
0.184375 -0.0315625 -0.0538507 0.484671 19.3013 15.0877 0.00841881
0.214063 -0.0324219 -0.057022 0.478272 19.2821 15.0321 0.00907673
0.246875 -0.0317969 -0.0636903 0.475556 19.3839 14.9568 0.0113184
0.276328 -0.0342187 -0.0847352 0.46684 19.5036 14.973 0.0125567
0.310469 -0.0338281 -0.0945236 0.453886 19.4953 14.8772 0.0126765
0.341484 -0.0360938 -0.096657 0.440969 19.4021 14.8654 0.012456
0.380781 -0.0371875 -0.0960071 0.433636 19.4753 14.8717 0.0126882
0.405859 -0.0382031 -0.0953236 0.4299 19.4144 14.8711 0.012449
0.448594 -0.0389844 -0.0921312 0.424981 19.4459 14.8476 0.0124771
0.477969 -0.0390625 -0.0920583 0.413882 19.353 14.676 0.0122766
0.503203 -0.0402344 -0.0912282 0.397467 19.3583 14.715 0.0120473
0.547656 -0.0416406 -0.0915345 0.386199 19.4094 14.6827 0.0118234
0.574141 -0.0454688 -0.0931957 0.381925 19.2717 14.6333 0.0119232
0.609375 -0.0794531 -0.0949926 0.373048 19.3093 14.5131 0.0121782
0.641563 -0.193984 -0.0985411 0.373715 19.306 14.6508 0.0118624
0.661484 -0.30125 -0.105967 0.363064 19.222 14.4929 0.0116733
0.62 -0.138984 -0.102972 0.364419 19.3797 14.5696 0.0118992
0.591797 -0.0610938 -0.101629 0.365597 19.2536 14.6288 0.0119513
0.563438 -0.0379688 -0.0951337 0.371482 19.3053 14.6313 0.0115089
0.526953 -0.0342187 -0.0987934 0.376109 19.3098 14.6409 0.0117791
0.494297 -0.0344531 -0.0962412 0.374616 19.3384 14.6581 0.0118374
0.459688 -0.0300781 -0.097247 0.388707 19.3462 14.6714 0.0117653
0.424063 -0.0278906 -0.0969173 0.395152 19.4597 14.7382 0.0120939
0.393047 -0.03125 -0.0907739 0.401571 19.4261 14.7963 0.0122213
0.359375 -0.0292188 -0.093176 0.402796 19.4126 14.7553 0.0120126
0.323281 -0.0303906 -0.0895462 0.419866 19.4235 14.7602 0.0120762
0.292109 -0.0289844 -0.0879042 0.422469 19.4288 14.8498 0.0118637
0.253437 -0.029375 -0.0936662 0.430806 19.4203 14.8571 0.0120188
0.228125 -0.0290625 -0.0926259 0.434769 19.4194 14.9768 0.0121064
0.193047 -0.0289063 -0.0900272 0.447955 19.3526 14.9059 0.0121187
0.164688 -0.0267969 -0.09008 0.456326 19.425 15.038 0.0120683
0.122813 -0.0267969 -0.0885674 0.460829 19.4707 14.9431 0.0121125
0.0925781 -0.0233594 -0.0873144 0.473325 19.3941 14.9804 0.011991
0.05625 -0.0236719 -0.0869872 0.479421 19.3094 15.0225 0.0120232
0.0242969 -0.0235938 -0.0887107 0.49088 19.2946 15.0481 0.0121632
-0.01 -0.0216406 -0.0848221 0.502094 19.3555 15.0671 0.0120328
-0.0144531 -0.0245313 -0.0820965 0.513425 19.4495 15.0961 0.0122792
0.0154687 -0.0260156 -0.080963 0.514866 19.3693 15.0529 0.0120965
0.0517969 -0.0264844 -0.0790411 0.506653 19.4113 15.0888 0.0121208
0.0896875 -0.0269531 -0.0772373 0.507859 19.3778 15.0797 0.0120391
0.121484 -0.0297656 -0.079204 0.504213 19.4517 15.0519 0.0122177
0.156172 -0.030625 -0.0779153 0.493612 19.3996 15.0365 0.0118304
0.185469 -0.031875 -0.0812361 0.4883 19.4188 15.088 0.0120972
0.213438 -0.0327344 -0.0832099 0.481516 19.397 15.0103 0.0121504
0.251563 -0.0324219 -0.0827456 0.469625 19.5015 14.9584 0.0124483
0.281406 -0.0327344 -0.0820456 0.462926 19.418 14.9717 0.0121279
0.308906 -0.035625 -0.0819325 0.463731 19.4772 14.9505 0.01242
0.353281 -0.0363281 -0.0829654 0.454547 19.3891 14.9437 0.0123017
0.368203 -0.0360938 -0.0832823 0.448773 19.3675 14.9648 0.0123439
0.360859 -0.0357031 -0.083053 0.444913 19.371 14.8656 0.0122006
0.366719 -0.0334375 -0.082917 0.440694 19.4379 14.8818 0.0120051
0.371016 -0.0349219 -0.0838276 0.448037 19.4277 14.9115 0.0122622
0.367969 -0.0357813 -0.0865338 0.443097 19.4104 14.9391 0.0121362
0.367109 -0.0354688 -0.0873718 0.437451 19.4228 14.8371 0.0121565
0.369766 -0.0348437 -0.0856869 0.44429 19.4691 14.9519 0.0123119
0.365078 -0.0319531 -0.0834939 0.440957 19.3746 14.8858 0.0121557